# time  xtii  vtii  xtrue  vtrue  Etii  dE/T  t/T
0  1  0  1  0  0.5  0  0
0  1  -0.3  1  0  0.545  0.014324  0
0.3  0.91  -0.6  0.95534  -0.29552  0.59405  0.029937  0.047746
0.6  0.73  -0.873  0.82534  -0.56464  0.64751  0.046955  0.095493
0.9  0.4681  -1.092  0.62161  -0.78333  0.70579  0.065505  0.14324
1.2  0.1405  -1.2324  0.36236  -0.93204  0.76931  0.085725  0.19099
1.5  -0.22923  -1.2746  0.070737  -0.99749  0.83855  0.10776  0.23873
1.8  -0.6116  -1.2058  -0.2272  -0.97385  0.91402  0.13179  0.28648
2.1  -0.97335  -1.0223  -0.50485  -0.86321  0.99628  0.15797  0.33423
2.4  -1.28  -0.73033  -0.73739  -0.67546  1.0859  0.18651  0.38197
2.7  -1.4991  -0.34631  -0.90407  -0.42738  1.1837  0.21762  0.42972
3  -1.603  0.10343  -0.98999  -0.14112  1.2902  0.25153  0.47746
3.3  -1.572  0.58434  -0.98748  0.15775  1.4063  0.28849  0.52521
3.6  -1.3967  1.0559  -0.89676  0.44252  1.5329  0.32878  0.57296
3.9  -1.0799  1.475  -0.72593  0.68777  1.6709  0.3727  0.6207
4.2  -0.63744  1.7989  -0.49026  0.87158  1.8212  0.42056  0.66845
4.5  -0.097756  1.9902  -0.2108  0.97753  1.9852  0.47274  0.7162
4.8  0.49929  2.0195  0.087499  0.99616  2.1638  0.52961  0.76394
5.1  1.1051  1.8697  0.37798  0.92581  2.3586  0.5916  0.81169
5.4  1.6661  1.5382  0.63469  0.77276  2.5708  0.65917  0.85944
5.7  2.1275  1.0383  0.83471  0.55069  2.8022  0.73281  0.90718
6  2.439  0.4001  0.96017  0.27942  3.0544  0.81309  0.95493
6.3  2.559  -0.3316  0.99986  -0.016814  3.3293  0.90059  1.0027
6.6  2.4595  -1.0993  0.95023  -0.31154  3.6289  0.99597  1.0504
6.9  2.1298  -1.8372  0.81573  -0.57844  3.9555  1.0999  1.0982
7.2  1.5786  -2.4761  0.60835  -0.79367  4.3115  1.2133  1.1459
7.5  0.83577  -2.9497  0.34664  -0.938  4.6996  1.3368  1.1937
7.8  -0.049136  -3.2004  0.053955  -0.99854  5.1225  1.4714  1.2414
8.1  -1.0093  -3.1857  -0.24354  -0.96989  5.5836  1.6182  1.2892
8.4  -1.965  -2.8829  -0.51929  -0.8546  6.0861  1.7781  1.3369
8.7  -2.8298  -2.2934  -0.74865  -0.66297  6.6338  1.9525  1.3846
9  -3.5179  -1.4445  -0.91113  -0.41212  7.2309  2.1425  1.4324
9.3  -3.9512  -0.3891  -0.99223  -0.12445  7.8817  2.3497  1.4801
9.6  -4.0679  0.79626  -0.98469  0.17433  8.591  2.5754  1.5279
9.9  -3.829  2.0166  -0.88919  0.45754  9.3642  2.8216  1.5756
10.2  -3.2241  3.1653  -0.71427  0.69987  10.207  3.0898  1.6234
10.5  -2.2745  4.1326  -0.47554  0.8797  11.126  3.3822  1.6711
10.8  -1.0347  4.8149  -0.19433  0.98094  12.127  3.701  1.7189
11.1  0.40979  5.1253  0.10424  0.99455  13.218  4.0484  1.7666
11.4  1.9474  5.0024  0.39349  0.91933  14.408  4.4271  1.8144
11.7  3.4481  4.4182  0.6476  0.76198  15.705  4.8398  1.8621
12  4.7735  3.3837  0.84385  0.53657  17.118  5.2897  1.9099
12.3  5.7887  1.9517  0.96473  0.26323  18.659  5.7801  1.9576
12.6  6.3742  0.21507  0.99943  -0.033623  20.338  6.3146  2.0054
12.9  6.4387  -1.6972  0.94486  -0.32747  22.168  6.8973  2.0531
13.2  5.9295  -3.6288  0.80588  -0.59207  24.164  7.5324  2.1008
13.5  4.8409  -5.4076  0.59492  -0.80378  26.338  8.2246  2.1486
13.8  3.2186  -6.8599  0.33081  -0.9437  28.709  8.9791  2.1963
14.1  1.1606  -7.8255  0.037158  -0.99931  31.293  9.8016  2.2441
14.4  -1.187  -8.1737  -0.25982  -0.96566  34.109  10.698  2.2918
14.7  -3.6391  -7.8176  -0.53358  -0.84575  37.179  11.675  2.3396
15  -5.9844  -6.7258  -0.75969  -0.65029  40.525  12.74  2.3873
15.3  -8.0021  -4.9305  -0.91793  -0.39674  44.172  13.901  2.4351
15.6  -9.4813  -2.5299  -0.99418  -0.10775  48.148  15.167  2.4828
15.9  -10.24  0.31451  -0.98162  0.19086  52.481  16.546  2.5306
16.2  -10.146  3.3866  -0.88137  0.47242  57.204  18.049  2.5783
16.5  -9.1299  6.4304  -0.7024  0.71179  62.353  19.688  2.6261
16.8  -7.2008  9.1693  -0.46068  0.88757  67.964  21.475  2.6738
17.1  -4.45  11.33  -0.17781  0.98407  74.081  23.422  2.7215
17.4  -1.0511  12.665  0.12094  0.99266  80.748  25.544  2.7693
17.7  2.7482  12.98  0.40889  0.91258  88.016  27.857  2.817
18  6.6422  12.155  0.66032  0.75099  95.937  30.379  2.8648
18.3  10.289  10.163  0.85276  0.52231  104.57  33.127  2.9125
18.6  13.338  7.0761  0.96902  0.24697  113.98  36.123  2.9603
18.9  15.461  3.0748  0.99873  -0.050423  124.24  39.388  3.008
19.2  16.383  -1.5633  0.93922  -0.34331  135.42  42.947  3.0558
19.5  15.914  -6.4782  0.79581  -0.60554  147.61  46.827  3.1035
19.8  13.971  -11.252  0.58132  -0.81367  160.9  51.056  3.1513
20.1  10.595  -15.444  0.3149  -0.94912  175.38  55.665  3.199
20.4  5.9617  -18.622  0.020351  -0.99979  191.16  60.689  3.2468
20.7  0.37512  -20.411  -0.27602  -0.96115  208.37  66.165  3.2945
21  -5.748  -20.523  -0.54773  -0.83666  227.12  72.135  3.3423
21.3  -11.905  -18.799  -0.77051  -0.63742  247.56  78.641  3.39
21.6  -17.545  -15.227  -0.92447  -0.38125  269.84  85.733  3.4377
21.9  -22.113  -9.9638  -0.99585  -0.091022  294.12  93.464  3.4855
22.2  -25.102  -3.33  -0.97827  0.20734  320.6  101.89  3.5332
22.5  -26.101  4.2006  -0.8733  0.48717  349.45  111.07  3.581
22.8  -24.841  12.031  -0.69033  0.72349  380.9  121.08  3.6287
23.1  -21.231  19.483  -0.44569  0.89519  415.18  132  3.6765
23.4  -15.387  25.852  -0.16124  0.98692  452.55  143.89  3.7242
23.7  -7.6308  30.468  0.13762  0.99049  493.28  156.86  3.772
24  1.5097  32.758  0.42418  0.90558  537.67  170.99  3.8197
24.3  11.337  32.305  0.67285  0.73978  586.06  186.39  3.8675
24.6  21.028  28.904  0.86142  0.5079  638.81  203.18  3.9152
24.9  29.7  22.595  0.97304  0.23065  696.3  221.48  3.963
25.2  36.478  13.685  0.99774  -0.067208  758.97  241.43  4.0107
25.5  40.584  2.7418  0.93332  -0.35906  827.27  263.17  4.0585
25.8  41.406  -9.4333  0.78552  -0.61884  901.73  286.87  4.1062
26.1  38.576  -21.855  0.56756  -0.82333  982.88  312.7  4.1539
26.4  32.02  -33.428  0.2989  -0.95429  1071.3  340.86  4.2017
26.7  21.991  -43.034  0.0035375  -0.99999  1167.8  371.55  4.2494
27  9.0811  -49.631  -0.29214  -0.95638  1272.9  405.01  4.2972
27.3  -5.8083  -52.356  -0.56172  -0.82733  1387.4  441.47  4.3449
27.6  -21.515  -50.613  -0.78112  -0.62438  1512.3  481.22  4.3927
27.9  -36.699  -44.159  -0.93075  -0.36565  1648.4  524.54  4.4404
28.2  -49.946  -33.149  -0.99724  -0.074265  1796.7  571.76  4.4882
28.5  -59.891  -18.165  -0.97465  0.22376  1958.5  623.24  4.5359
28.8  -65.341  -0.19764  -0.86499  0.50179  2134.7  679.34  4.5837
29.1  -65.4  19.405  -0.67807  0.735  2326.8  740.5  4.6314
29.4  -59.579  39.025  -0.43058  0.90255  2536.3  807.16  4.6792
29.7  -47.871  56.898  -0.14462  0.98949  2764.5  879.82  4.7269
30  -30.802  71.259  0.15425  0.98803  3013.3  959.01  4.7746
30.3  -9.4239  80.5  0.43935  0.89832  3284.5  1045.3  4.8224
30.6  14.726  83.327  0.68519  0.72836  3580.1  1139.4  4.8701
30.9  39.724  78.909  0.86984  0.49334  3902.3  1242  4.9179
31.2  63.397  66.992  0.97678  0.21425  4253.6  1353.8  4.9656
31.5  83.495  47.973  0.99647  -0.083974  4636.4  1475.6  5.0134
31.8  97.886  22.925  0.92715  -0.3747  5053.7  1608.5  5.0611
32.1  104.76  -6.4414  0.775  -0.63196  5508.5  1753.2  5.1089
32.4  102.83  -37.871  0.55363  -0.83276  6004.2  1911.1  5.1566
32.7  91.47  -68.72  0.28281  -0.95918  6544.6  2083.1  5.2044
33  70.854  -96.161  -0.013277  -0.99991  7133.6  2270.5  5.2521
33.3  42.006  -117.42  -0.30818  -0.95133  7775.7  2474.9  5.2999
33.6  6.7808  -130.02  -0.57555  -0.81777  8475.5  2697.7  5.3476
33.9  -32.225  -132.05  -0.79151  -0.61116  9238.3  2940.5  5.3954
34.2  -71.841  -122.39  -0.93677  -0.34995  10070  3205.1  5.4431
34.5  -108.56  -100.83  -0.99835  -0.057487  10976  3493.6  5.4908
34.8  -138.81  -68.267  -0.97075  0.24011  11964  3808  5.5386
35.1  -159.29  -26.625  -0.85643  0.51626  13041  4150.8  5.5863
35.4  -167.27  21.161  -0.66561  0.7463  14214  4524.4  5.6341
35.7  -160.93  71.344  -0.41534  0.90967  15494  4931.6  5.6818
36  -139.52  119.62  -0.12796  0.99178  16888  5375.4  5.7296
36.3  -103.64  161.48  0.17084  0.9853  18408  5859.2  5.7773
36.6  -55.193  192.57  0.45439  0.8908  20065  6386.6  5.8251
36.9  2.578  209.13  0.69734  0.71674  21870  6961.4  5.8728
37.2  65.316  208.35  0.87801  0.47865  23839  7587.9  5.9206
37.5  127.82  188.76  0.98024  0.1978  25984  8270.9  5.9683
37.8  184.45  150.41  0.99492  -0.10072  28323  9015.2  6.0161
38.1  229.57  95.077  0.92071  -0.39024  30872  9826.6  6.0638
38.4  258.1  26.205  0.76427  -0.6449  33650  10711  6.1115
38.7  265.96  -51.224  0.53955  -0.84195  36679  11675  6.1593
39  250.59  -131.01  0.26664  -0.9638  39980  12726  6.207
39.3  211.29  -206.19  -0.030087  -0.99955  43578  13871  6.2548
39.6  149.43  -269.57  -0.32413  -0.94601  47500  15120  6.3025
39.9  68.558  -314.4  -0.58922  -0.80797  51775  16480  6.3503
40.2  -25.763  -334.97  -0.80167  -0.59776  56435  17964  6.398
40.5  -126.25  -327.24  -0.94252  -0.33415  61514  19580  6.4458
40.8  -224.43  -289.37  -0.99917  -0.040693  67050  21343  6.4935
41.1  -311.24  -222.04  -0.96657  0.2564  73085  23263  6.5413
41.4  -377.85  -128.67  -0.84763  0.53059  79662  25357  6.589
41.7  -416.45  -15.313  -0.65297  0.75738  86832  27639  6.6368
42  -421.04  109.62  -0.39999  0.91652  94647  30127  6.6845
42.3  -388.16  235.93  -0.11127  0.99379  1.0317e+05  32838  6.7323
42.6  -317.38  352.38  0.18738  0.98229  1.1245e+05  35794  6.78
42.9  -211.66  447.59  0.4693  0.88304  1.2257e+05  39015  6.8277
43.2  -77.383  511.09  0.7093  0.70491  1.336e+05  42527  6.8755
43.5  75.945  534.31  0.88593  0.46382  1.4563e+05  46354  6.9232
43.8  236.24  511.52  0.98343  0.18129  1.5873e+05  50526  6.971
44.1  389.69  440.65  0.99308  -0.11743  1.7302e+05  55073  7.0187
44.4  521.89  323.74  0.91402  -0.40566  1.8859e+05  60030  7.0665
44.7  619.01  167.18  0.75332  -0.65766  2.0556e+05  65433  7.1142
45  669.17  -18.526  0.52532  -0.8509  2.2406e+05  71321  7.162
45.3  663.61  -219.28  0.2504  -0.96814  2.4423e+05  77740  7.2097
45.6  597.83  -418.36  -0.046889  -0.9989  2.6621e+05  84737  7.2575
45.9  472.32  -597.71  -0.33999  -0.94043  2.9017e+05  92363  7.3052
46.2  293.01  -739.4  -0.60272  -0.79795  3.1628e+05  1.0068e+05  7.353
46.5  71.185  -827.3  -0.81161  -0.5842  3.4475e+05  1.0974e+05  7.4007
46.8  -177.01  -848.66  -0.948  -0.31826  3.7578e+05  1.1961e+05  7.4485
47.1  -431.6  -795.56  -0.99971  -0.023888  4.096e+05  1.3038e+05  7.4962
47.4  -670.27  -666.08  -0.96212  0.27262  4.4646e+05  1.4211e+05  7.5439
47.7  -870.09  -465  -0.83859  0.54477  4.8664e+05  1.549e+05  7.5917
48  -1009.6  -203.97  -0.64014  0.76825  5.3044e+05  1.6884e+05  7.6394
48.3  -1070.8  98.911  -0.38452  0.92312  5.7818e+05  1.8404e+05  7.6872
48.6  -1041.1  420.15  -0.094545  0.99552  6.3022e+05  2.006e+05  7.7349
48.9  -915.07  732.48  0.20387  0.979  6.8694e+05  2.1866e+05  7.7827
49.2  -695.32  1007  0.48408  0.87502  7.4876e+05  2.3834e+05  7.8304
49.5  -393.22  1215.6  0.72105  0.69288  8.1615e+05  2.5979e+05  7.8782
49.8  -28.545  1333.6  0.89361  0.44885  8.896e+05  2.8317e+05  7.9259
